Data from dråber_Absorbance_15-22-07-264.txt Node
Date: Tue Apr 26 15:22:07 CEST 2022
User: au615756
Spectrometer: FLMS05815
Trigger mode: 0
Integration Time (sec): 5.000000E-1
Scans to average: 1
Electric dark correction enabled: true
Nonlinearity correction enabled: false
Boxcar width: 0
XAxis mode: Wavelengths
Number of Pixels in Spectrum: 2048
>>>>>Begin Spectral Data<<<<<
187.008	-0.37
187.477	-0.37
187.945	-0.37
188.413	-0
188.881	-0.22
189.349	0.91
189.817	-0.23
190.285	-0.28
190.753	0.54
191.22	-0.31
191.688	-0.01
192.156	0.37
192.623	-0.12
193.091	-1.47
193.559	0.09
194.026	-0.8
194.493	0.17
194.961	-0.2
195.428	-0
195.895	-1.71
196.363	-0.31
196.83	0.22
197.297	-0
197.764	0.44
198.231	0.36
198.698	-0
199.165	-0
199.632	0.14
200.099	0.57
200.566	0.28
201.032	0.36
201.499	0.11
201.966	0.21
202.432	0.5
202.899	0.17
203.365	0.26
203.832	0.34
204.298	0.33
204.764	0.56
205.231	0.36
205.697	0.49
206.163	0.17
206.629	0.08
207.095	0.31
207.561	0.25
208.027	0.51
208.493	0.63
208.959	0.16
209.425	0.41
209.891	-0
210.356	0.44
210.822	1.49
211.288	0.43
211.753	-0
212.219	0.47
212.684	-0
213.15	1
213.615	1.02
214.08	0.67
214.546	1.17
215.011	0.9
215.476	2.2
215.941	0.91
216.406	0.95
216.871	1.73
217.336	1.49
217.801	2.1
218.266	1.45
218.731	1.57
219.196	1.25
219.66	1.42
220.125	2.74
220.59	2.51
221.054	2.17
221.519	1.75
221.983	1.65
222.448	1.93
222.912	1.88
223.376	2
223.841	-0
224.305	2.06
224.769	2
225.233	2.24
225.697	-0
226.161	2.41
226.625	2.63
227.089	2.25
227.553	2.89
228.017	2.17
228.48	2.2
228.944	2.28
229.408	2.13
229.871	1.95
230.335	2.24
230.798	2.36
231.262	2.07
231.725	2.49
232.188	2.34
232.652	2.41
233.115	2.52
233.578	2.38
234.041	2.08
234.504	2.34
234.967	2.15
235.43	2.44
235.893	2.4
236.356	2.33
236.819	2.33
237.282	2.34
237.745	3.18
238.207	2.19
238.67	2.48
239.132	2.64
239.595	2.61
240.057	2.3
240.52	2.21
240.982	2.27
241.445	2.37
241.907	2.3
242.369	3.06
242.831	2.64
243.293	2.35
243.755	2.34
244.217	2.2
244.679	2.23
245.141	2.34
245.603	2.42
246.065	2.27
246.527	2.37
246.988	2.25
247.45	2.74
247.912	2.43
248.373	2.53
248.835	2.28
249.296	2.4
249.758	2.26
250.219	2.38
250.68	-0
251.142	2.52
251.603	2.53
252.064	2.88
252.525	2.51
252.986	2.27
253.447	2.49
253.908	2.37
254.369	2.19
254.83	2.77
255.29	2.29
255.751	2.39
256.212	2.52
256.673	2.77
257.133	2.74
257.594	2.47
258.054	2.76
258.515	2.59
258.975	2.35
259.435	2.26
259.895	2.48
260.356	2.41
260.816	2.74
261.276	2.63
261.736	2.56
262.196	2.26
262.656	2.63
263.116	2.45
263.576	2.33
264.036	2.34
264.495	2.78
264.955	2.27
265.415	2.45
265.874	2.31
266.334	2.48
266.793	2.26
267.253	2.55
267.712	2.32
268.172	2.35
268.631	2.26
269.09	2.61
269.549	2.4
270.008	2.45
270.468	2.16
270.927	2.25
271.386	2.32
271.844	2.12
272.303	2.43
272.762	2.17
273.221	2.3
273.68	2.28
274.138	2.59
274.597	2.42
275.056	2.26
275.514	2.35
275.973	2.36
276.431	2.22
276.889	2.18
277.348	2.28
277.806	2.11
278.264	2.12
278.722	2.25
279.18	2.18
279.638	2.16
280.096	2.12
280.554	2.14
281.012	1.98
281.47	2.16
281.928	2.06
282.386	1.97
282.843	2.08
283.301	1.99
283.758	1.96
284.216	2.03
284.674	1.97
285.131	1.9
285.588	1.96
286.046	1.99
286.503	2.11
286.96	1.99
287.417	1.85
287.874	1.91
288.331	1.97
288.789	1.85
289.245	1.85
289.702	1.83
290.159	1.81
290.616	1.79
291.073	1.77
291.529	1.76
291.986	1.77
292.443	1.68
292.899	1.76
293.356	1.7
293.812	1.68
294.269	1.72
294.725	1.69
295.181	1.7
295.637	1.69
296.094	1.64
296.55	1.58
297.006	1.64
297.462	1.6
297.918	1.61
298.374	1.61
298.83	1.59
299.285	1.57
299.741	1.57
300.197	1.64
300.653	1.56
301.108	1.55
301.564	1.57
302.019	1.54
302.475	1.54
302.93	1.51
303.385	1.55
303.841	1.52
304.296	1.51
304.751	1.54
305.206	1.5
305.661	1.52
306.116	1.47
306.571	1.5
307.026	1.52
307.481	1.45
307.936	1.49
308.391	1.5
308.846	1.46
309.3	1.51
309.755	1.46
310.209	1.43
310.664	1.47
311.118	1.45
311.573	1.41
312.027	1.44
312.481	1.43
312.936	1.44
313.39	1.42
313.844	1.44
314.298	1.42
314.752	1.38
315.206	1.36
315.66	1.37
316.114	1.35
316.568	1.37
317.022	1.33
317.475	1.36
317.929	1.34
318.383	1.33
318.836	1.32
319.29	1.33
319.743	1.31
320.196	1.3
320.65	1.35
321.103	1.3
321.556	1.28
322.01	1.27
322.463	1.27
322.916	1.27
323.369	1.25
323.822	1.23
324.275	1.28
324.728	1.24
325.181	1.24
325.633	1.23
326.086	1.21
326.539	1.16
326.991	1.15
327.444	1.13
327.896	1.13
328.349	1.16
328.801	1.15
329.254	1.19
329.706	1.16
330.158	1.16
330.61	1.14
331.062	1.12
331.515	1.13
331.967	1.12
332.419	1.12
332.871	1.1
333.322	1.1
333.774	1.11
334.226	1.09
334.678	1.09
335.129	1.06
335.581	1.07
336.033	1.08
336.484	1.06
336.936	1.07
337.387	1.05
337.838	1.06
338.29	1.06
338.741	1.04
339.192	1.04
339.643	1.04
340.094	1.04
340.545	1.05
340.996	1.05
341.447	1.02
341.898	1.01
342.349	1.03
342.8	1.01
343.25	1.02
343.701	1.01
344.152	1.01
344.602	1.01
345.053	0.98
345.503	0.99
345.954	0.99
346.404	1
346.854	0.98
347.305	0.98
347.755	0.96
348.205	0.97
348.655	0.95
349.105	0.98
349.555	0.97
350.005	0.96
350.455	0.95
350.905	0.97
351.354	0.95
351.804	0.94
352.254	0.96
352.703	0.95
353.153	0.93
353.602	0.95
354.052	0.92
354.501	0.92
354.95	0.93
355.4	0.92
355.849	0.94
356.298	0.93
356.747	0.92
357.196	0.91
357.645	0.93
358.094	0.93
358.543	0.93
358.992	0.91
359.441	0.9
359.89	0.89
360.338	0.91
360.787	0.91
361.236	0.92
361.684	0.9
362.133	0.9
362.581	0.91
363.029	0.89
363.478	0.87
363.926	0.88
364.374	0.88
364.822	0.89
365.271	0.9
365.719	0.86
366.167	0.87
366.615	0.87
367.062	0.88
367.51	0.9
367.958	0.88
368.406	0.89
368.854	0.89
369.301	0.88
369.749	0.87
370.196	0.85
370.644	0.87
371.091	0.86
371.538	0.87
371.986	0.88
372.433	0.87
372.88	0.87
373.327	0.87
373.775	0.86
374.222	0.86
374.669	0.86
375.115	0.87
375.562	0.86
376.009	0.85
376.456	0.86
376.903	0.87
377.349	0.86
377.796	0.87
378.243	0.85
378.689	0.88
379.135	0.87
379.582	0.87
380.028	0.86
380.475	0.85
380.921	0.87
381.367	0.87
381.813	0.87
382.259	0.88
382.705	0.87
383.151	0.86
383.597	0.86
384.043	0.86
384.489	0.89
384.934	0.87
385.38	0.87
385.826	0.86
386.271	0.87
386.717	0.86
387.162	0.86
387.608	0.86
388.053	0.87
388.499	0.84
388.944	0.84
389.389	0.87
389.834	0.84
390.279	0.84
390.724	0.85
391.169	0.86
391.614	0.86
392.059	0.82
392.504	0.84
392.949	0.82
393.394	0.85
393.838	0.82
394.283	0.83
394.727	0.83
395.172	0.83
395.616	0.87
396.061	0.83
396.505	0.82
396.95	0.83
397.394	0.83
397.838	0.8
398.282	0.81
398.726	0.84
399.17	0.81
399.614	0.83
400.058	0.84
400.502	0.83
400.946	0.86
401.39	0.85
401.833	0.84
402.277	0.86
402.721	0.87
403.164	0.86
403.608	0.84
404.051	0.84
404.494	0.86
404.938	0.87
405.381	0.84
405.824	0.86
406.267	0.85
406.71	0.85
407.154	0.87
407.597	0.86
408.039	0.88
408.482	0.87
408.925	0.85
409.368	0.85
409.811	0.87
410.253	0.82
410.696	0.86
411.139	0.84
411.581	0.84
412.024	0.83
412.466	0.85
412.908	0.81
413.351	0.82
413.793	0.79
414.235	0.8
414.677	0.81
415.119	0.8
415.561	0.81
416.003	0.78
416.445	0.77
416.887	0.76
417.329	0.75
417.771	0.75
418.212	0.75
418.654	0.75
419.096	0.75
419.537	0.72
419.979	0.71
420.42	0.7
420.861	0.72
421.303	0.7
421.744	0.69
422.185	0.68
422.626	0.66
423.067	0.67
423.508	0.67
423.949	0.66
424.39	0.65
424.831	0.64
425.272	0.64
425.713	0.63
426.154	0.61
426.594	0.61
427.035	0.64
427.475	0.62
427.916	0.59
428.356	0.59
428.797	0.58
429.237	0.59
429.677	0.59
430.118	0.56
430.558	0.56
430.998	0.55
431.438	0.53
431.878	0.55
432.318	0.55
432.758	0.55
433.198	0.55
433.638	0.55
434.077	0.54
434.517	0.53
434.957	0.53
435.396	0.51
435.836	0.51
436.275	0.5
436.715	0.49
437.154	0.47
437.593	0.45
438.032	0.47
438.472	0.48
438.911	0.49
439.35	0.48
439.789	0.48
440.228	0.47
440.667	0.48
441.106	0.48
441.544	0.48
441.983	0.48
442.422	0.46
442.86	0.46
443.299	0.45
443.738	0.46
444.176	0.45
444.615	0.45
445.053	0.44
445.491	0.45
445.929	0.44
446.368	0.44
446.806	0.44
447.244	0.43
447.682	0.43
448.12	0.43
448.558	0.44
448.996	0.44
449.434	0.44
449.871	0.43
450.309	0.44
450.747	0.43
451.184	0.42
451.622	0.4
452.059	0.42
452.497	0.43
452.934	0.42
453.371	0.42
453.809	0.42
454.246	0.42
454.683	0.41
455.12	0.41
455.557	0.41
455.994	0.4
456.431	0.42
456.868	0.4
457.305	0.39
457.742	0.4
458.178	0.4
458.615	0.4
459.052	0.39
459.488	0.39
459.925	0.39
460.361	0.39
460.797	0.38
461.234	0.38
461.67	0.38
462.106	0.38
462.542	0.38
462.979	0.39
463.415	0.38
463.851	0.39
464.287	0.37
464.722	0.38
465.158	0.36
465.594	0.36
466.03	0.36
466.465	0.36
466.901	0.34
467.337	0.37
467.772	0.35
468.208	0.4
468.643	0.37
469.078	0.35
469.514	0.36
469.949	0.33
470.384	0.35
470.819	0.35
471.254	0.36
471.689	0.34
472.124	0.35
472.559	0.34
472.994	0.34
473.429	0.36
473.863	0.34
474.298	0.33
474.733	0.33
475.167	0.33
475.602	0.33
476.036	0.32
476.471	0.31
476.905	0.31
477.339	0.34
477.773	0.33
478.208	0.33
478.642	0.33
479.076	0.32
479.51	0.32
479.944	0.33
480.378	0.33
480.811	0.32
481.245	0.32
481.679	0.32
482.113	0.31
482.546	0.32
482.98	0.31
483.413	0.3
483.847	0.31
484.28	0.32
484.713	0.33
485.147	0.32
485.58	0.31
486.013	0.3
486.446	0.29
486.879	0.31
487.312	0.31
487.745	0.28
488.178	0.31
488.611	0.31
489.044	0.3
489.477	0.32
489.909	0.32
490.342	0.3
490.774	0.29
491.207	0.29
491.639	0.3
492.072	0.29
492.504	0.29
492.936	0.31
493.369	0.29
493.801	0.3
494.233	0.28
494.665	0.28
495.097	0.27
495.529	0.28
495.961	0.29
496.393	0.27
496.824	0.28
497.256	0.27
497.688	0.26
498.119	0.27
498.551	0.3
498.982	0.29
499.414	0.29
499.845	0.28
500.277	0.27
500.708	0.26
501.139	0.27
501.57	0.27
502.001	0.28
502.432	0.27
502.863	0.26
503.294	0.26
503.725	0.28
504.156	0.27
504.587	0.26
505.017	0.27
505.448	0.26
505.879	0.26
506.309	0.26
506.74	0.26
507.17	0.27
507.601	0.27
508.031	0.26
508.461	0.27
508.891	0.25
509.321	0.25
509.752	0.26
510.182	0.26
510.612	0.27
511.042	0.26
511.471	0.25
511.901	0.26
512.331	0.26
512.761	0.26
513.19	0.25
513.62	0.26
514.049	0.25
514.479	0.26
514.908	0.26
515.338	0.26
515.767	0.25
516.196	0.25
516.625	0.26
517.055	0.26
517.484	0.25
517.913	0.24
518.342	0.26
518.771	0.27
519.199	0.27
519.628	0.25
520.057	0.23
520.486	0.26
520.914	0.26
521.343	0.26
521.771	0.26
522.2	0.26
522.628	0.25
523.057	0.26
523.485	0.25
523.913	0.26
524.341	0.26
524.77	0.25
525.198	0.27
525.626	0.26
526.054	0.25
526.481	0.26
526.909	0.26
527.337	0.26
527.765	0.24
528.192	0.27
528.62	0.26
529.048	0.27
529.475	0.27
529.903	0.27
530.33	0.26
530.757	0.28
531.185	0.29
531.612	0.28
532.039	0.26
532.466	0.29
532.893	0.28
533.32	0.28
533.747	0.28
534.174	0.28
534.601	0.27
535.028	0.27
535.454	0.29
535.881	0.29
536.308	0.29
536.734	0.27
537.161	0.29
537.587	0.31
538.013	0.3
538.44	0.3
538.866	0.3
539.292	0.27
539.718	0.27
540.144	0.3
540.57	0.29
540.996	0.3
541.422	0.3
541.848	0.3
542.274	0.29
542.7	0.27
543.125	0.26
543.551	0.26
543.977	0.28
544.402	0.28
544.828	0.28
545.253	0.29
545.678	0.29
546.104	0.28
546.529	0.28
546.954	0.29
547.379	0.29
547.804	0.29
548.229	0.29
548.654	0.29
549.079	0.31
549.504	0.32
549.929	0.33
550.353	0.36
550.778	0.34
551.203	0.33
551.627	0.36
552.052	0.34
552.476	0.34
552.901	0.36
553.325	0.36
553.749	0.35
554.173	0.37
554.598	0.39
555.022	0.38
555.446	0.39
555.87	0.38
556.294	0.4
556.718	0.39
557.141	0.38
557.565	0.41
557.989	0.42
558.412	0.42
558.836	0.44
559.26	0.42
559.683	0.43
560.106	0.43
560.53	0.43
560.953	0.44
561.376	0.43
561.8	0.42
562.223	0.45
562.646	0.45
563.069	0.46
563.492	0.48
563.915	0.47
564.337	0.48
564.76	0.47
565.183	0.48
565.606	0.5
566.028	0.5
566.451	0.52
566.873	0.51
567.296	0.52
567.718	0.54
568.14	0.51
568.563	0.53
568.985	0.55
569.407	0.54
569.829	0.56
570.251	0.55
570.673	0.57
571.095	0.57
571.517	0.57
571.939	0.58
572.361	0.61
572.782	0.58
573.204	0.6
573.625	0.62
574.047	0.65
574.468	0.65
574.89	0.62
575.311	0.63
575.732	0.66
576.154	0.65
576.575	0.67
576.996	0.68
577.417	0.7
577.838	0.69
578.259	0.66
578.68	0.68
579.101	0.68
579.522	0.69
579.942	0.74
580.363	0.79
580.784	0.79
581.204	0.76
581.625	0.73
582.045	0.74
582.465	0.74
582.886	0.71
583.306	0.72
583.726	0.82
584.146	0.84
584.566	0.84
584.986	0.82
585.406	0.79
585.826	0.75
586.246	0.75
586.666	0.76
587.086	0.81
587.505	0.87
587.925	0.84
588.345	0.85
588.764	0.84
589.184	0.83
589.603	0.84
590.022	0.89
590.442	0.89
590.861	0.88
591.28	0.85
591.699	0.84
592.118	0.89
592.537	0.87
592.956	0.87
593.375	0.84
593.794	0.84
594.212	0.9
594.631	0.86
595.05	0.95
595.468	0.99
595.887	0.99
596.305	0.97
596.724	0.91
597.142	0.91
597.56	0.97
597.979	1.01
598.397	0.94
598.815	0.98
599.233	1
599.651	0.97
600.069	0.99
600.487	1.01
600.905	1
601.322	1.06
601.74	1.09
602.158	1.07
602.575	1.1
602.993	1.11
603.41	1.1
603.828	1.13
604.245	1.09
604.663	1.06
605.08	1.1
605.497	1.11
605.914	1.19
606.331	1.2
606.748	1.19
607.165	1.18
607.582	1.23
607.999	1.19
608.416	1.22
608.832	1.24
609.249	1.28
609.666	1.28
610.082	1.33
610.499	1.27
610.915	1.28
611.332	1.39
611.748	1.33
612.164	1.34
612.58	1.37
612.997	1.49
613.413	1.46
613.829	1.47
614.245	1.49
614.661	1.57
615.076	1.45
615.492	1.44
615.908	1.69
616.324	1.48
616.739	1.5
617.155	1.53
617.57	1.57
617.986	1.64
618.401	1.47
618.817	1.51
619.232	1.51
619.647	1.65
620.062	1.52
620.477	1.56
620.892	1.47
621.307	1.87
621.722	1.59
622.137	1.63
622.552	1.77
622.967	1.55
623.381	1.5
623.796	1.56
624.211	1.92
624.625	1.73
625.04	1.73
625.454	1.79
625.868	1.6
626.283	1.45
626.697	1.79
627.111	1.62
627.525	1.85
627.939	1.88
628.353	1.74
628.767	2.05
629.181	1.8
629.595	1.72
630.009	1.66
630.422	2.18
630.836	1.78
631.249	1.96
631.663	1.64
632.076	1.79
632.49	1.82
632.903	1.69
633.316	2.51
633.73	1.62
634.143	1.51
634.556	1.65
634.969	1.48
635.382	1.69
635.795	1.8
636.208	1.8
636.621	1.67
637.033	1.7
637.446	1.65
637.859	1.65
638.271	1.74
638.684	1.99
639.096	1.65
639.509	1.62
639.921	1.74
640.333	1.63
640.746	1.67
641.158	1.56
641.57	1.32
641.982	1.64
642.394	1.69
642.806	1.45
643.218	1.4
643.63	1.42
644.041	1.37
644.453	1.54
644.865	1.46
645.276	1.37
645.688	1.5
646.099	1.25
646.511	1.19
646.922	1.62
647.333	1.4
647.745	1.18
648.156	1.37
648.567	1.19
648.978	1.3
649.389	1.24
649.8	1.23
650.211	1.21
650.622	1.23
651.032	1.09
651.443	1.09
651.854	1.08
652.264	1.1
652.675	0.95
653.085	0.92
653.496	0.98
653.906	1
654.316	0.89
654.726	0.89
655.137	0.89
655.547	0.8
655.957	0.9
656.367	0.81
656.777	0.76
657.187	0.55
657.596	0.62
658.006	0.66
658.416	0.88
658.826	0.9
659.235	0.7
659.645	0.61
660.054	0.56
660.463	0.57
660.873	0.6
661.282	0.56
661.691	0.56
662.1	0.56
662.51	0.52
662.919	0.49
663.328	0.47
663.737	0.47
664.145	0.44
664.554	0.43
664.963	0.42
665.372	0.39
665.78	0.4
666.189	0.35
666.597	0.36
667.006	0.37
667.414	0.35
667.823	0.36
668.231	0.34
668.639	0.35
669.047	0.3
669.455	0.3
669.863	0.3
670.271	0.29
670.679	0.29
671.087	0.28
671.495	0.25
671.903	0.26
672.31	0.26
672.718	0.25
673.126	0.22
673.533	0.21
673.941	0.22
674.348	0.24
674.755	0.22
675.163	0.22
675.57	0.2
675.977	0.19
676.384	0.21
676.791	0.18
677.198	0.18
677.605	0.17
678.012	0.16
678.419	0.16
678.825	0.19
679.232	0.18
679.639	0.15
680.045	0.14
680.452	0.16
680.858	0.14
681.264	0.14
681.671	0.14
682.077	0.15
682.483	0.13
682.889	0.13
683.295	0.12
683.701	0.11
684.107	0.13
684.513	0.15
684.919	0.12
685.325	0.1
685.731	0.1
686.136	0.09
686.542	0.1
686.947	0.11
687.353	0.09
687.758	0.12
688.164	0.13
688.569	0.12
688.974	0.1
689.379	0.1
689.784	0.1
690.19	0.09
690.595	0.1
690.999	0.11
691.404	0.09
691.809	0.09
692.214	0.1
692.619	0.08
693.023	0.07
693.428	0.07
693.832	0.1
694.237	0.1
694.641	0.09
695.046	0.08
695.45	0.07
695.854	0.09
696.258	0.09
696.662	0.05
697.066	0.07
697.47	0.07
697.874	0.09
698.278	0.06
698.682	0.03
699.086	0.04
699.489	0.08
699.893	0.11
700.297	0.09
700.7	0.08
701.104	0.08
701.507	0.07
701.91	0.07
702.314	0.06
702.717	0.06
703.12	0.07
703.523	0.05
703.926	0.06
704.329	0.06
704.732	0.06
705.135	0.08
705.538	0.08
705.94	0.07
706.343	0.07
706.746	0.07
707.148	0.08
707.551	0.08
707.953	0.05
708.355	0.02
708.758	0.02
709.16	0.07
709.562	0.08
709.964	0.07
710.366	0.06
710.768	0.06
711.17	0.06
711.572	0.06
711.974	0.04
712.376	0.03
712.777	0.06
713.179	0.07
713.581	0.07
713.982	0.05
714.384	0.03
714.785	0.04
715.186	0.06
715.588	0.04
715.989	0.05
716.39	0.05
716.791	0.04
717.192	0.06
717.593	0.07
717.994	0.08
718.395	0.06
718.796	0.05
719.196	0.05
719.597	0.04
719.998	0.05
720.398	0.06
720.799	0.08
721.199	0.04
721.6	0.04
722	0.05
722.4	0.06
722.8	0.05
723.201	0.05
723.601	0.06
724.001	0.05
724.401	0.06
724.8	0.05
725.2	0.06
725.6	0.07
726	0.05
726.399	0.04
726.799	0.04
727.199	0.04
727.598	0.04
727.997	0.05
728.397	0.05
728.796	0.06
729.195	0.04
729.594	0.03
729.994	0.05
730.393	0.06
730.792	0.07
731.19	0.04
731.589	0.05
731.988	0.04
732.387	0.03
732.786	0.04
733.184	0.05
733.583	0.09
733.981	0.05
734.38	0.03
734.778	0.03
735.176	0.05
735.575	0.05
735.973	0.04
736.371	0.07
736.769	0.07
737.167	0.04
737.565	0.02
737.963	0.07
738.361	0.07
738.759	0.05
739.156	0.04
739.554	0.04
739.951	0.03
740.349	0.03
740.746	0.05
741.144	0.03
741.541	0.09
741.938	0.08
742.336	0.04
742.733	0.06
743.13	0.05
743.527	0.05
743.924	0.04
744.321	0.02
744.718	0.05
745.115	0.07
745.511	0.06
745.908	0.06
746.305	0.05
746.701	0.05
747.098	0.05
747.494	0.04
747.89	0.04
748.287	0.05
748.683	0.06
749.079	0.05
749.475	0.04
749.871	0.07
750.267	0.05
750.663	0.04
751.059	0.01
751.455	-0.18
751.851	-0.16
752.246	-0
752.642	0.19
753.038	0.15
753.433	0.06
753.829	0.1
754.224	0.07
754.619	0.05
755.015	0.03
755.41	0.03
755.805	0.05
756.2	0.06
756.595	0.04
756.99	0.02
757.385	0.04
757.78	0.05
758.175	0.03
758.569	0.01
758.964	0.02
759.359	0.04
759.753	0.05
760.148	0.09
760.542	0.06
760.936	0.04
761.331	0.03
761.725	0.04
762.119	0.04
762.513	0.03
762.907	0.03
763.301	0.06
763.695	0.05
764.089	0.02
764.483	-0
764.877	-0.02
765.27	0.03
765.664	0.07
766.057	0.05
766.451	0.02
766.844	0.05
767.238	0.06
767.631	0.08
768.024	0.06
768.417	0.06
768.811	0.04
769.204	0.03
769.597	0.02
769.99	-0
770.383	0.03
770.775	0.06
771.168	0.07
771.561	0.05
771.953	0.03
772.346	0.03
772.739	0.02
773.131	0.05
773.523	0.02
773.916	0.01
774.308	0.04
774.7	0.04
775.092	0.05
775.484	0.04
775.876	0.04
776.268	0.05
776.66	0.03
777.052	0.03
777.444	0.06
777.836	0.03
778.227	0.03
778.619	0.03
779.01	0.04
779.402	0.03
779.793	0.04
780.185	0.03
780.576	0.02
780.967	0.03
781.358	0.03
781.749	0.05
782.14	0.03
782.531	-0.01
782.922	0.01
783.313	0.03
783.704	0.05
784.095	0.02
784.485	0.02
784.876	0.02
785.266	0.04
785.657	0.03
786.047	0.04
786.438	0.02
786.828	0.02
787.218	0.01
787.608	0.03
787.998	0.02
788.389	0.05
788.779	0.05
789.168	0.03
789.558	0
789.948	0
790.338	0.02
790.728	0.03
791.117	0.06
791.507	0.04
791.896	0.02
792.286	0.02
792.675	0.02
793.064	0.01
793.454	0.02
793.843	0.04
794.232	0.03
794.621	0.01
795.01	0.02
795.399	-0.02
795.788	-0.02
796.176	0.02
796.565	0.06
796.954	0.06
797.343	0.05
797.731	0.04
798.12	0.05
798.508	0.04
798.896	0.01
799.285	0
799.673	0.02
800.061	0.03
800.449	0.03
800.837	0.02
801.225	0.03
801.613	0.02
802.001	0.02
802.389	0.02
802.777	0.02
803.164	0.05
803.552	0.05
803.94	0.04
804.327	0.01
804.715	0.02
805.102	0
805.489	0.03
805.877	0.04
806.264	0.02
806.651	0.03
807.038	-0
807.425	0.01
807.812	-0
808.199	0.02
808.586	0.04
808.972	0.03
809.359	0.02
809.746	0.03
810.132	0.04
810.519	0.04
810.905	0.03
811.292	-0.01
811.678	-0
812.064	0.01
812.45	0.01
812.836	-0.02
813.223	0.03
813.609	0.07
813.995	0.05
814.38	0.01
814.766	0.02
815.152	-0.01
815.538	0.02
815.923	0.04
816.309	0.05
816.694	0
817.08	0.02
817.465	0.02
817.851	0.02
818.236	0.01
818.621	0
819.006	0.01
819.391	0.04
819.776	0.03
820.161	0.01
820.546	0.02
820.931	0.03
821.316	0.02
821.7	0.01
822.085	-0
822.47	0.03
822.854	0.03
823.239	0.05
823.623	0.02
824.007	0.02
824.391	0
824.776	0.01
825.16	0.01
825.544	0.03
825.928	0.03
826.312	0.01
826.696	-0.02
827.08	0.01
827.463	-0
827.847	0.01
828.231	-0
828.614	0.02
828.998	0.02
829.381	0.03
829.765	0.08
830.148	0.04
830.531	0.02
830.914	-0
831.297	0.03
831.681	0.04
832.064	0.03
832.446	0.02
832.829	0.04
833.212	0.02
833.595	0.01
833.978	0.01
834.36	0.02
834.743	0.03
835.125	0.05
835.508	0.03
835.89	0.03
836.272	0.03
836.655	0.04
837.037	0.02
837.419	0.04
837.801	0.04
838.183	0.04
838.565	0.02
838.947	0.01
839.329	0.04
839.71	0.03
840.092	0.04
840.474	0.04
840.855	0.03
841.237	0.03
841.618	-0.01
842	0
842.381	0.04
842.762	0.07
843.143	0.04
843.525	-0.01
843.906	0.04
844.287	0.04
844.667	0.05
845.048	0.04
845.429	0.02
845.81	0.05
846.191	0.03
846.571	0
846.952	0.04
847.332	0.04
847.713	0.05
848.093	0.04
848.473	0.03
848.854	0.02
849.234	0.04
849.614	0.04
849.994	0.06
850.374	0.03
850.754	0.03
851.134	0.03
851.513	0.04
851.893	0.05
852.273	0.04
852.652	0.03
853.032	0.02
853.411	0.04
853.791	0.05
854.17	0.03
854.55	0.03
854.929	0.05
855.308	0.05
855.687	0.05
856.066	0.05
856.445	0.05
856.824	0.03
857.203	0.03
857.582	0.04
857.96	0.04
858.339	0.05
858.718	0.07
859.096	0.08
859.475	0.06
859.853	0.05
860.231	0.06
860.61	0.06
860.988	0.04
861.366	0.06
861.744	0.05
862.122	0.05
862.5	0.04
862.878	0.06
863.256	0.04
863.633	0.05
864.011	0.05
864.389	0.06
864.766	0.05
865.144	0.04
865.521	0.06
865.899	0.06
866.276	0.04
866.653	0.06
867.031	0.07
867.408	0.04
867.785	0.07
868.162	0.06
868.539	0.08
868.916	0.06
869.292	0.05
869.669	0.04
870.046	0.07
870.422	0.05
870.799	0.03
871.175	0.04
871.552	0.05
871.928	0.05
872.305	0.06
872.681	0.07
873.057	0.08
873.433	0.06
873.809	0.07
874.185	0.03
874.561	0.06
874.937	0.06
875.313	0.05
875.688	0.06
876.064	0.05
876.44	0.06
876.815	0.05
877.191	0.06
877.566	0.06
877.942	0.05
878.317	0.07
878.692	0.05
879.067	0.07
879.442	0.07
879.817	0.08
880.192	0.06
880.567	0.09
880.942	0.07
881.317	0.04
881.691	0.06
882.066	0.06
882.441	0.07
882.815	0.06
883.19	0.07
883.564	0.07
883.938	0.08
884.313	0.08
884.687	0.08
885.061	0.06
885.435	0.07
885.809	0.07
886.183	0.06
886.557	0.08
886.931	0.04
887.305	0.04
887.678	0.08
888.052	0.06
888.425	0.05
888.799	0.04
889.172	0.06
889.546	0.05
889.919	0.05
890.292	0.05
890.665	0.04
891.039	0.06
891.412	0.07
891.785	0.06
892.157	0.05
892.53	0.05
892.903	0.05
893.276	0.07
893.648	0.05
894.021	0.07
894.394	0.06
894.766	0.07
895.139	0.09
895.511	0.06
895.883	0.07
896.255	0.07
896.627	0.04
897	0.05
897.372	0.06
897.744	0.06
898.115	0.07
898.487	0.07
898.859	0.08
899.231	0.07
899.602	0.08
899.974	0.06
900.345	0.08
900.717	0.07
901.088	0.07
901.46	0.07
901.831	0.06
902.202	0.07
902.573	0.07
902.944	0.04
903.315	0.08
903.686	0.04
904.057	0.05
904.428	0.05
904.799	0.05
905.169	0.08
905.54	0.03
905.91	0.06
906.281	0.09
906.651	0.06
907.022	0.06
907.392	0.08
907.762	0.09
908.132	0.09
908.502	0.04
908.872	0.05
909.242	0.06
909.612	0.04
909.982	0.08
910.352	0.06
910.722	0.02
911.091	0.07
911.461	0.05
911.83	0.04
912.2	0.06
912.569	0.04
912.938	0.04
913.308	0.05
913.677	0.04
914.046	0.01
914.415	0.06
914.784	0.06
915.153	0.05
915.522	0.07
915.891	0.05
916.259	0.03
916.628	0.01
916.997	0.04
917.365	0.06
917.734	0.05
918.102	0
918.47	0.08
918.839	0.05
919.207	0.03
919.575	0.06
919.943	0.05
920.311	0.01
920.679	0.04
921.047	-0.01
921.415	0.07
921.783	0.04
922.15	0.01
922.518	0.01
922.886	0.04
923.253	0.02
923.62	0.06
923.988	0.03
924.355	0.03
924.722	0.03
925.09	0.05
925.457	-0.01
925.824	0.04
926.191	0.06
926.558	0
926.925	-0
927.291	0.06
927.658	0.09
928.025	0.06
928.391	-0.02
928.758	0.02
929.124	0
929.491	-0.01
929.857	0.03
930.223	-0.06
930.59	0.03
930.956	-0.01
931.322	0.03
931.688	-0.01
932.054	-0.04
932.42	0.08
932.785	0.07
933.151	0.08
933.517	0.07
933.882	0
934.248	0.05
934.613	0.01
934.979	-0.02
935.344	0.03
935.71	-0
936.075	-0.02
936.44	0.06
936.805	0.04
937.17	0.04
937.535	0.02
937.9	0.08
938.265	0.04
938.63	0.09
938.994	-0.04
939.359	0.03
939.724	0.07
940.088	0
940.453	0.04
940.817	0.02
941.181	0.07
941.545	-0.01
941.91	0.04
942.274	0.06
942.638	0.13
943.002	-0.09
943.366	0.13
943.73	0.04
944.093	-0
944.457	0.02
944.821	0.08
945.184	0.03
945.548	-0.02
945.911	0.01
946.275	-0.04
946.638	0.02
947.001	0.06
947.365	0.01
947.728	0.08
948.091	0.09
948.454	-0.12
948.817	0.04
949.18	0.18
949.543	0
949.905	0.05
950.268	-0.05
950.631	0.04
950.993	0.02
951.356	0.06
951.718	-0.09
952.08	-0
952.443	0
952.805	0.18
953.167	0.08
953.529	-0.09
953.891	0.07
954.253	-0.09
954.615	0.03
954.977	0.14
955.339	0.03
955.7	0.08
956.062	-0.04
956.424	-0.12
956.785	-0.02
957.147	-0.11
957.508	-0
957.869	-0.12
958.231	-0.03
958.592	-0.08
958.953	-0.08
959.314	-0.03
959.675	0.31
960.036	0.28
960.397	0.15
960.757	-0.23
961.118	-0.12
961.479	0.1
961.839	-0.06
962.2	-0.16
962.56	-0.41
962.921	-0.4
963.281	0.04
963.641	0.17
964.002	0.27
964.362	0.06
964.722	0.09
965.082	0.28
965.442	0.26
965.801	0.32
966.161	0.13
966.521	0.11
966.881	-0.02
967.24	-0.06
967.6	0.19
967.959	0.08
968.319	-0.79
968.678	0.07
969.037	0.09
969.397	0.28
969.756	0.02
970.115	0.19
970.474	-0.01
970.833	0.23
971.192	0.16
971.55	0.04
971.909	0.2
972.268	-0.23
972.626	-0.09
972.985	-0
973.343	0.43
973.702	-0.48
974.06	-0.16
974.418	-0.02
974.777	-0.19
975.135	0.48
975.493	0.09
975.851	0.27
976.209	0.18
976.567	-0
976.925	0.09
977.282	0.06
977.64	-0.28
977.998	0.09
978.355	0.13
978.713	0.4
979.07	1.03
979.428	0.2
979.785	-0.03
980.142	-0.11
980.499	-0
980.856	-0.24
981.213	-0.52
981.57	-0
981.927	0.41
982.284	-0.06
982.641	0.15
982.997	0.18
983.354	0.19
983.711	-0.01
984.067	0.17
984.424	-0.11
984.78	0.19
985.136	-0
985.493	-0.1
985.849	-0.5
986.205	-0.11
986.561	-0.27
986.917	-0.09
987.273	-1.12
987.629	0.62
987.984	0.33
988.34	-0.13
988.696	-0
989.051	-0.05
989.407	0.14
989.762	0.43
990.118	1.28
990.473	0.08
990.828	0.64
991.183	-0
991.538	-0
991.893	-0
992.248	0.34
992.603	-0
992.958	-0.13
993.313	-0
993.668	-0
994.022	0.11
994.377	0.06
994.731	-0.07
995.086	-0
995.44	-0
995.794	0.21
996.149	-0.03
996.503	-0
996.857	-0
997.211	0.46
997.565	-0
997.919	0.52
998.273	0.28
998.627	-0
998.98	-0.22
999.334	0.19
999.687	-0.15
1000.041	0.96
1000.394	-0
1000.748	0.6
1001.101	-0.18
1001.454	-0.17
1001.808	-0.02
1002.161	-0
1002.514	-0.34
1002.867	0.79
1003.22	-0
1003.572	0.72
1003.925	-0.79
1004.278	-0
1004.631	0.52
1004.983	-0
1005.336	-0
1005.688	-0
1006.04	-0.59
1006.393	0.11
1006.745	0.35
1007.097	0.06
1007.449	0.13
1007.801	-1.33
1008.153	-0.24
1008.505	-0
1008.857	-0
1009.209	-0.28
1009.561	0.1
1009.912	0.19
1010.264	-0
1010.615	0.53
1010.967	-0.12
1011.318	0.01
1011.669	-0.07
1012.021	-0
1012.372	-0
1012.723	-0
1013.074	0.02
1013.425	-0.1
1013.776	-0.24
1014.127	-0
1014.477	0
1014.828	0.96
1015.179	-0.03
1015.529	-0.29
1015.88	-0.2
1016.23	-0
1016.581	-0.64
1016.931	0.11
1017.281	-0
1017.631	0.32
1017.982	-0
1018.332	0.02
1018.682	0.52
1019.031	-0.23
1019.381	-0.72
1019.731	-0
1020.081	-0
1020.43	0.4
1020.78	-0
1021.129	-0
1021.479	-0
1021.828	-0
1022.178	-0.43
1022.527	0.61
1022.876	0.39
1023.225	-0.79
1023.574	-0.13
1023.923	-0
1024.272	-0
1024.621	0.14
1024.97	-0.57
1025.318	-0
1025.667	-0.07
1026.015	0.21
1026.364	-0
1026.712	-0
1027.061	-0
1027.409	-0
1027.757	0.09
1028.105	0.09
1028.453	0.09
