Data from dråber_Absorbance_15-18-14-770.txt Node
Date: Tue Apr 26 15:18:14 CEST 2022
User: au615756
Spectrometer: FLMS05815
Trigger mode: 0
Integration Time (sec): 5.000000E-1
Scans to average: 1
Electric dark correction enabled: true
Nonlinearity correction enabled: false
Boxcar width: 0
XAxis mode: Wavelengths
Number of Pixels in Spectrum: 2048
>>>>>Begin Spectral Data<<<<<
187.008	0.68
187.477	0.68
187.945	0.68
188.413	-0
188.881	0.57
189.349	-0.07
189.817	-0.17
190.285	-0.17
190.753	0.26
191.22	-0.18
191.688	0.39
192.156	-0
192.623	-0.01
193.091	-0
193.559	0.21
194.026	-0.41
194.493	0.09
194.961	0.22
195.428	0.86
195.895	-0.74
196.363	-0.37
196.83	0.57
197.297	-0.26
197.764	-0.14
198.231	0.16
198.698	-0.08
199.165	-0.14
199.632	0.04
200.099	-0.02
200.566	-0.05
201.032	0.13
201.499	0.31
201.966	0.3
202.432	0.16
202.899	0.01
203.365	0.06
203.832	0.03
204.298	0.21
204.764	0.28
205.231	0.07
205.697	0.09
206.163	0.14
206.629	0.17
207.095	0.22
207.561	0.16
208.027	0.27
208.493	0.23
208.959	0.12
209.425	0.16
209.891	0.28
210.356	0.58
210.822	0.45
211.288	0.43
211.753	0.34
212.219	0.36
212.684	0.63
213.15	0.57
213.615	0.76
214.08	0.54
214.546	0.76
215.011	0.74
215.476	1.04
215.941	0.79
216.406	0.79
216.871	0.84
217.336	1.41
217.801	1.36
218.266	1.31
218.731	1.23
219.196	1.13
219.66	1.38
220.125	1.54
220.59	1.65
221.054	1.64
221.519	1.5
221.983	1.55
222.448	1.81
222.912	1.72
223.376	1.78
223.841	1.91
224.305	1.83
224.769	1.78
225.233	1.85
225.697	2.1
226.161	2.06
226.625	1.87
227.089	1.89
227.553	2.1
228.017	1.98
228.48	1.97
228.944	1.98
229.408	2.07
229.871	1.93
230.335	1.97
230.798	2.02
231.262	2
231.725	2.24
232.188	2.25
232.652	1.98
233.115	2.3
233.578	2.18
234.041	2.2
234.504	2.28
234.967	2.11
235.43	2.38
235.893	2.23
236.356	2.14
236.819	2.28
237.282	2.15
237.745	2.44
238.207	2.13
238.67	2.4
239.132	2.15
239.595	2.29
240.057	2.35
240.52	2.25
240.982	2.03
241.445	2.02
241.907	2.22
242.369	2.24
242.831	2.17
243.293	2.03
243.755	2.16
244.217	2.13
244.679	2.08
245.141	2.12
245.603	2.07
246.065	2.09
246.527	2.07
246.988	2.2
247.45	2.06
247.912	2.09
248.373	2.08
248.835	1.97
249.296	2.03
249.758	2.02
250.219	1.99
250.68	1.98
251.142	2.14
251.603	1.94
252.064	2.01
252.525	1.96
252.986	1.86
253.447	1.93
253.908	1.88
254.369	1.8
254.83	1.9
255.29	1.8
255.751	1.82
256.212	1.8
256.673	1.83
257.133	1.85
257.594	1.76
258.054	1.8
258.515	1.73
258.975	1.64
259.435	1.72
259.895	1.71
260.356	1.73
260.816	1.71
261.276	1.67
261.736	1.64
262.196	1.61
262.656	1.64
263.116	1.63
263.576	1.63
264.036	1.62
264.495	1.59
264.955	1.57
265.415	1.56
265.874	1.54
266.334	1.55
266.793	1.53
267.253	1.53
267.712	1.51
268.172	1.52
268.631	1.48
269.09	1.46
269.549	1.47
270.008	1.43
270.468	1.44
270.927	1.44
271.386	1.45
271.844	1.38
272.303	1.4
272.762	1.35
273.221	1.37
273.68	1.34
274.138	1.35
274.597	1.31
275.056	1.3
275.514	1.3
275.973	1.29
276.431	1.26
276.889	1.25
277.348	1.24
277.806	1.2
278.264	1.19
278.722	1.2
279.18	1.17
279.638	1.17
280.096	1.15
280.554	1.14
281.012	1.09
281.47	1.1
281.928	1.08
282.386	1.07
282.843	1.06
283.301	1.06
283.758	1.02
284.216	1.02
284.674	1
285.131	0.99
285.588	0.97
286.046	0.96
286.503	0.95
286.96	0.92
287.417	0.9
287.874	0.89
288.331	0.87
288.789	0.85
289.245	0.82
289.702	0.8
290.159	0.79
290.616	0.76
291.073	0.76
291.529	0.73
291.986	0.73
292.443	0.73
292.899	0.71
293.356	0.69
293.812	0.67
294.269	0.67
294.725	0.67
295.181	0.66
295.637	0.65
296.094	0.63
296.55	0.63
297.006	0.63
297.462	0.62
297.918	0.62
298.374	0.6
298.83	0.6
299.285	0.6
299.741	0.6
300.197	0.6
300.653	0.6
301.108	0.58
301.564	0.58
302.019	0.59
302.475	0.58
302.93	0.58
303.385	0.59
303.841	0.57
304.296	0.57
304.751	0.56
305.206	0.56
305.661	0.56
306.116	0.56
306.571	0.55
307.026	0.56
307.481	0.55
307.936	0.55
308.391	0.53
308.846	0.54
309.3	0.55
309.755	0.54
310.209	0.53
310.664	0.53
311.118	0.52
311.573	0.52
312.027	0.52
312.481	0.52
312.936	0.52
313.39	0.52
313.844	0.51
314.298	0.51
314.752	0.51
315.206	0.5
315.66	0.5
316.114	0.49
316.568	0.49
317.022	0.5
317.475	0.49
317.929	0.49
318.383	0.48
318.836	0.48
319.29	0.48
319.743	0.47
320.196	0.46
320.65	0.47
321.103	0.45
321.556	0.45
322.01	0.46
322.463	0.45
322.916	0.45
323.369	0.44
323.822	0.43
324.275	0.43
324.728	0.43
325.181	0.43
325.633	0.43
326.086	0.42
326.539	0.41
326.991	0.42
327.444	0.41
327.896	0.41
328.349	0.41
328.801	0.41
329.254	0.42
329.706	0.4
330.158	0.39
330.61	0.38
331.062	0.38
331.515	0.37
331.967	0.39
332.419	0.39
332.871	0.37
333.322	0.37
333.774	0.38
334.226	0.37
334.678	0.38
335.129	0.37
335.581	0.36
336.033	0.36
336.484	0.36
336.936	0.36
337.387	0.35
337.838	0.35
338.29	0.36
338.741	0.37
339.192	0.35
339.643	0.35
340.094	0.35
340.545	0.36
340.996	0.34
341.447	0.35
341.898	0.34
342.349	0.34
342.8	0.34
343.25	0.33
343.701	0.35
344.152	0.33
344.602	0.33
345.053	0.34
345.503	0.33
345.954	0.33
346.404	0.33
346.854	0.33
347.305	0.33
347.755	0.32
348.205	0.33
348.655	0.33
349.105	0.33
349.555	0.32
350.005	0.32
350.455	0.33
350.905	0.31
351.354	0.32
351.804	0.32
352.254	0.32
352.703	0.31
353.153	0.31
353.602	0.31
354.052	0.31
354.501	0.31
354.95	0.31
355.4	0.31
355.849	0.3
356.298	0.31
356.747	0.31
357.196	0.31
357.645	0.3
358.094	0.31
358.543	0.3
358.992	0.3
359.441	0.3
359.89	0.3
360.338	0.3
360.787	0.29
361.236	0.29
361.684	0.29
362.133	0.29
362.581	0.3
363.029	0.28
363.478	0.29
363.926	0.29
364.374	0.29
364.822	0.29
365.271	0.29
365.719	0.28
366.167	0.29
366.615	0.29
367.062	0.29
367.51	0.3
367.958	0.29
368.406	0.28
368.854	0.28
369.301	0.28
369.749	0.29
370.196	0.28
370.644	0.29
371.091	0.28
371.538	0.28
371.986	0.27
372.433	0.28
372.88	0.27
373.327	0.28
373.775	0.28
374.222	0.28
374.669	0.28
375.115	0.28
375.562	0.28
376.009	0.27
376.456	0.29
376.903	0.28
377.349	0.28
377.796	0.29
378.243	0.28
378.689	0.29
379.135	0.28
379.582	0.29
380.028	0.29
380.475	0.28
380.921	0.28
381.367	0.3
381.813	0.28
382.259	0.28
382.705	0.28
383.151	0.29
383.597	0.29
384.043	0.28
384.489	0.29
384.934	0.28
385.38	0.3
385.826	0.27
386.271	0.29
386.717	0.28
387.162	0.28
387.608	0.28
388.053	0.29
388.499	0.28
388.944	0.28
389.389	0.28
389.834	0.27
390.279	0.28
390.724	0.28
391.169	0.28
391.614	0.28
392.059	0.26
392.504	0.27
392.949	0.27
393.394	0.27
393.838	0.26
394.283	0.26
394.727	0.25
395.172	0.26
395.616	0.29
396.061	0.27
396.505	0.27
396.95	0.27
397.394	0.27
397.838	0.26
398.282	0.27
398.726	0.27
399.17	0.27
399.614	0.25
400.058	0.25
400.502	0.27
400.946	0.29
401.39	0.29
401.833	0.27
402.277	0.28
402.721	0.29
403.164	0.29
403.608	0.28
404.051	0.27
404.494	0.27
404.938	0.29
405.381	0.27
405.824	0.27
406.267	0.28
406.71	0.27
407.154	0.27
407.597	0.3
408.039	0.29
408.482	0.29
408.925	0.28
409.368	0.28
409.811	0.28
410.253	0.28
410.696	0.27
411.139	0.28
411.581	0.29
412.024	0.28
412.466	0.27
412.908	0.27
413.351	0.26
413.793	0.26
414.235	0.25
414.677	0.26
415.119	0.26
415.561	0.25
416.003	0.25
416.445	0.24
416.887	0.25
417.329	0.24
417.771	0.24
418.212	0.23
418.654	0.24
419.096	0.25
419.537	0.23
419.979	0.22
420.42	0.22
420.861	0.21
421.303	0.22
421.744	0.21
422.185	0.2
422.626	0.19
423.067	0.19
423.508	0.19
423.949	0.19
424.39	0.19
424.831	0.2
425.272	0.2
425.713	0.2
426.154	0.18
426.594	0.17
427.035	0.18
427.475	0.2
427.916	0.18
428.356	0.18
428.797	0.17
429.237	0.16
429.677	0.17
430.118	0.17
430.558	0.16
430.998	0.16
431.438	0.15
431.878	0.15
432.318	0.16
432.758	0.15
433.198	0.17
433.638	0.17
434.077	0.16
434.517	0.16
434.957	0.15
435.396	0.14
435.836	0.15
436.275	0.14
436.715	0.12
437.154	0.13
437.593	0.11
438.032	0.13
438.472	0.13
438.911	0.14
439.35	0.14
439.789	0.13
440.228	0.13
440.667	0.13
441.106	0.15
441.544	0.13
441.983	0.12
442.422	0.12
442.86	0.12
443.299	0.13
443.738	0.14
444.176	0.12
444.615	0.11
445.053	0.11
445.491	0.11
445.929	0.11
446.368	0.11
446.806	0.12
447.244	0.12
447.682	0.11
448.12	0.11
448.558	0.11
448.996	0.12
449.434	0.1
449.871	0.12
450.309	0.12
450.747	0.11
451.184	0.11
451.622	0.11
452.059	0.11
452.497	0.11
452.934	0.12
453.371	0.11
453.809	0.12
454.246	0.11
454.683	0.11
455.12	0.1
455.557	0.11
455.994	0.1
456.431	0.12
456.868	0.1
457.305	0.1
457.742	0.1
458.178	0.11
458.615	0.1
459.052	0.1
459.488	0.12
459.925	0.1
460.361	0.11
460.797	0.1
461.234	0.1
461.67	0.09
462.106	0.08
462.542	0.09
462.979	0.1
463.415	0.12
463.851	0.11
464.287	0.09
464.722	0.09
465.158	0.09
465.594	0.08
466.03	0.09
466.465	0.08
466.901	0.08
467.337	0.09
467.772	0.09
468.208	0.11
468.643	0.1
469.078	0.1
469.514	0.08
469.949	0.08
470.384	0.09
470.819	0.09
471.254	0.1
471.689	0.09
472.124	0.09
472.559	0.08
472.994	0.08
473.429	0.09
473.863	0.08
474.298	0.09
474.733	0.08
475.167	0.06
475.602	0.07
476.036	0.08
476.471	0.06
476.905	0.07
477.339	0.09
477.773	0.08
478.208	0.08
478.642	0.07
479.076	0.07
479.51	0.07
479.944	0.09
480.378	0.08
480.811	0.07
481.245	0.07
481.679	0.07
482.113	0.07
482.546	0.08
482.98	0.07
483.413	0.07
483.847	0.07
484.28	0.08
484.713	0.08
485.147	0.08
485.58	0.06
486.013	0.06
486.446	0.05
486.879	0.07
487.312	0.06
487.745	0.05
488.178	0.07
488.611	0.08
489.044	0.06
489.477	0.08
489.909	0.1
490.342	0.07
490.774	0.07
491.207	0.07
491.639	0.08
492.072	0.06
492.504	0.06
492.936	0.06
493.369	0.06
493.801	0.06
494.233	0.07
494.665	0.06
495.097	0.07
495.529	0.06
495.961	0.06
496.393	0.07
496.824	0.06
497.256	0.05
497.688	0.05
498.119	0.04
498.551	0.08
498.982	0.08
499.414	0.07
499.845	0.06
500.277	0.06
500.708	0.05
501.139	0.06
501.57	0.05
502.001	0.06
502.432	0.04
502.863	0.05
503.294	0.05
503.725	0.05
504.156	0.06
504.587	0.06
505.017	0.05
505.448	0.06
505.879	0.06
506.309	0.05
506.74	0.06
507.17	0.06
507.601	0.07
508.031	0.05
508.461	0.06
508.891	0.06
509.321	0.05
509.752	0.04
510.182	0.05
510.612	0.07
511.042	0.07
511.471	0.05
511.901	0.05
512.331	0.06
512.761	0.06
513.19	0.05
513.62	0.05
514.049	0.05
514.479	0.05
514.908	0.05
515.338	0.06
515.767	0.05
516.196	0.04
516.625	0.06
517.055	0.07
517.484	0.05
517.913	0.04
518.342	0.05
518.771	0.05
519.199	0.07
519.628	0.06
520.057	0.04
520.486	0.05
520.914	0.05
521.343	0.05
521.771	0.06
522.2	0.06
522.628	0.05
523.057	0.06
523.485	0.04
523.913	0.06
524.341	0.04
524.77	0.05
525.198	0.06
525.626	0.05
526.054	0.04
526.481	0.06
526.909	0.06
527.337	0.07
527.765	0.05
528.192	0.06
528.62	0.06
529.048	0.06
529.475	0.06
529.903	0.07
530.33	0.06
530.757	0.06
531.185	0.07
531.612	0.07
532.039	0.06
532.466	0.07
532.893	0.06
533.32	0.06
533.747	0.08
534.174	0.06
534.601	0.06
535.028	0.04
535.454	0.07
535.881	0.07
536.308	0.07
536.734	0.06
537.161	0.06
537.587	0.07
538.013	0.06
538.44	0.07
538.866	0.06
539.292	0.05
539.718	0.05
540.144	0.07
540.57	0.07
540.996	0.07
541.422	0.06
541.848	0.08
542.274	0.06
542.7	0.04
543.125	0.05
543.551	0.05
543.977	0.06
544.402	0.06
544.828	0.04
545.253	0.07
545.678	0.06
546.104	0.06
546.529	0.06
546.954	0.06
547.379	0.09
547.804	0.07
548.229	0.06
548.654	0.07
549.079	0.06
549.504	0.07
549.929	0.08
550.353	0.09
550.778	0.1
551.203	0.1
551.627	0.1
552.052	0.1
552.476	0.08
552.901	0.1
553.325	0.09
553.749	0.08
554.173	0.09
554.598	0.11
555.022	0.12
555.446	0.1
555.87	0.11
556.294	0.11
556.718	0.11
557.141	0.08
557.565	0.11
557.989	0.13
558.412	0.12
558.836	0.14
559.26	0.12
559.683	0.13
560.106	0.13
560.53	0.14
560.953	0.13
561.376	0.12
561.8	0.12
562.223	0.12
562.646	0.13
563.069	0.12
563.492	0.15
563.915	0.14
564.337	0.15
564.76	0.13
565.183	0.13
565.606	0.15
566.028	0.17
566.451	0.15
566.873	0.17
567.296	0.16
567.718	0.18
568.14	0.18
568.563	0.17
568.985	0.17
569.407	0.15
569.829	0.16
570.251	0.16
570.673	0.16
571.095	0.17
571.517	0.17
571.939	0.18
572.361	0.19
572.782	0.17
573.204	0.17
573.625	0.2
574.047	0.21
574.468	0.22
574.89	0.2
575.311	0.17
575.732	0.22
576.154	0.2
576.575	0.22
576.996	0.23
577.417	0.25
577.838	0.24
578.259	0.22
578.68	0.22
579.101	0.21
579.522	0.18
579.942	0.22
580.363	0.28
580.784	0.29
581.204	0.28
581.625	0.23
582.045	0.27
582.465	0.22
582.886	0.21
583.306	0.19
583.726	0.28
584.146	0.31
584.566	0.31
584.986	0.31
585.406	0.29
585.826	0.27
586.246	0.23
586.666	0.23
587.086	0.24
587.505	0.3
587.925	0.31
588.345	0.31
588.764	0.28
589.184	0.27
589.603	0.28
590.022	0.31
590.442	0.31
590.861	0.33
591.28	0.3
591.699	0.3
592.118	0.31
592.537	0.31
592.956	0.31
593.375	0.3
593.794	0.27
594.212	0.3
594.631	0.27
595.05	0.3
595.468	0.36
595.887	0.38
596.305	0.38
596.724	0.32
597.142	0.32
597.56	0.35
597.979	0.38
598.397	0.35
598.815	0.32
599.233	0.33
599.651	0.34
600.069	0.34
600.487	0.34
600.905	0.32
601.322	0.38
601.74	0.39
602.158	0.38
602.575	0.43
602.993	0.42
603.41	0.43
603.828	0.44
604.245	0.42
604.663	0.4
605.08	0.39
605.497	0.38
605.914	0.44
606.331	0.44
606.748	0.45
607.165	0.42
607.582	0.45
607.999	0.46
608.416	0.49
608.832	0.48
609.249	0.49
609.666	0.51
610.082	0.53
610.499	0.53
610.915	0.54
611.332	0.52
611.748	0.53
612.164	0.53
612.58	0.54
612.997	0.56
613.413	0.55
613.829	0.58
614.245	0.58
614.661	0.58
615.076	0.58
615.492	0.6
615.908	0.62
616.324	0.62
616.739	0.59
617.155	0.64
617.57	0.69
617.986	0.69
618.401	0.67
618.817	0.68
619.232	0.69
619.647	0.69
620.062	0.69
620.477	0.71
620.892	0.72
621.307	0.72
621.722	0.72
622.137	0.75
622.552	0.78
622.967	0.73
623.381	0.72
623.796	0.71
624.211	0.79
624.625	0.82
625.04	0.8
625.454	0.79
625.868	0.82
626.283	0.75
626.697	0.83
627.111	0.83
627.525	0.81
627.939	0.79
628.353	0.81
628.767	0.84
629.181	0.78
629.595	0.8
630.009	0.87
630.422	0.87
630.836	0.84
631.249	0.85
631.663	0.84
632.076	0.87
632.49	0.86
632.903	0.83
633.316	0.83
633.73	0.8
634.143	0.82
634.556	0.8
634.969	0.77
635.382	0.8
635.795	0.84
636.208	0.74
636.621	0.76
637.033	0.76
637.446	0.77
637.859	0.75
638.271	0.74
638.684	0.78
639.096	0.72
639.509	0.72
639.921	0.7
640.333	0.74
640.746	0.72
641.158	0.72
641.57	0.7
641.982	0.66
642.394	0.67
642.806	0.65
643.218	0.65
643.63	0.62
644.041	0.64
644.453	0.6
644.865	0.58
645.276	0.6
645.688	0.56
646.099	0.54
646.511	0.56
646.922	0.54
647.333	0.53
647.745	0.5
648.156	0.5
648.567	0.47
648.978	0.48
649.389	0.45
649.8	0.41
650.211	0.4
650.622	0.4
651.032	0.41
651.443	0.41
651.854	0.4
652.264	0.4
652.675	0.36
653.085	0.35
653.496	0.37
653.906	0.34
654.316	0.3
654.726	0.3
655.137	0.3
655.547	0.29
655.957	0.31
656.367	0.29
656.777	0.24
657.187	0.07
657.596	0.09
658.006	0.13
658.416	0.32
658.826	0.46
659.235	0.33
659.645	0.25
660.054	0.21
660.463	0.2
660.873	0.21
661.282	0.21
661.691	0.2
662.1	0.19
662.51	0.17
662.919	0.17
663.328	0.16
663.737	0.17
664.145	0.16
664.554	0.16
664.963	0.14
665.372	0.13
665.78	0.15
666.189	0.11
666.597	0.13
667.006	0.12
667.414	0.12
667.823	0.12
668.231	0.11
668.639	0.12
669.047	0.09
669.455	0.09
669.863	0.09
670.271	0.11
670.679	0.1
671.087	0.07
671.495	0.07
671.903	0.09
672.31	0.08
672.718	0.07
673.126	0.06
673.533	0.05
673.941	0.05
674.348	0.08
674.755	0.09
675.163	0.09
675.57	0.07
675.977	0.05
676.384	0.07
676.791	0.06
677.198	0.06
677.605	0.05
678.012	0.04
678.419	0.05
678.825	0.06
679.232	0.05
679.639	0.03
680.045	0.02
680.452	0.05
680.858	0.04
681.264	0.04
681.671	0.03
682.077	0.04
682.483	0.05
682.889	0.04
683.295	0.02
683.701	0.03
684.107	0.04
684.513	0.07
684.919	0.05
685.325	0.02
685.731	0.02
686.136	0.02
686.542	0.02
686.947	0.03
687.353	0.01
687.758	0.04
688.164	0.06
688.569	0.05
688.974	0.03
689.379	0.03
689.784	0.03
690.19	0.04
690.595	0.04
690.999	0.04
691.404	0.02
691.809	0.01
692.214	0.03
692.619	0.02
693.023	-0
693.428	0.01
693.832	0.06
694.237	0.04
694.641	0.04
695.046	0.03
695.45	0.01
695.854	0.03
696.258	0.03
696.662	0
697.066	0.01
697.47	0.01
697.874	0.04
698.278	0.02
698.682	-0.02
699.086	-0.02
699.489	0.03
699.893	0.08
700.297	0.05
700.7	0.03
701.104	0.03
701.507	0.04
701.91	0.01
702.314	0.02
702.717	0.02
703.12	0.01
703.523	0.01
703.926	0.01
704.329	0.01
704.732	0.01
705.135	0.04
705.538	0.04
705.94	0.04
706.343	0.04
706.746	0.04
707.148	0.03
707.551	0.03
707.953	0.01
708.355	-0.02
708.758	-0.03
709.16	0.02
709.562	0.04
709.964	0.03
710.366	0.02
710.768	0.03
711.17	0.03
711.572	0.03
711.974	0.01
712.376	0.01
712.777	0.01
713.179	0.04
713.581	0.03
713.982	0.02
714.384	-0.01
714.785	0
715.186	0
715.588	0.02
715.989	0.02
716.39	0.01
716.791	0.01
717.192	0.02
717.593	0.03
717.994	0.05
718.395	0.04
718.796	0.02
719.196	0.01
719.597	0.02
719.998	0.03
720.398	0.02
720.799	0.04
721.199	0.03
721.6	0.02
722	0.03
722.4	0.03
722.8	0.02
723.201	0.01
723.601	0.03
724.001	0.02
724.401	0.03
724.8	0.03
725.2	0.03
725.6	0.04
726	0.04
726.399	0.02
726.799	0.01
727.199	-0
727.598	0.03
727.997	0.01
728.397	0.02
728.796	0.02
729.195	0.02
729.594	0.01
729.994	0
730.393	0.03
730.792	0.03
731.19	0.02
731.589	0.01
731.988	0
732.387	-0
732.786	0
733.184	0.01
733.583	0.06
733.981	0.02
734.38	0.02
734.778	0.01
735.176	0.02
735.575	0.03
735.973	0.01
736.371	0.03
736.769	0.04
737.167	0.03
737.565	0.01
737.963	0.03
738.361	0.03
738.759	0.02
739.156	0.02
739.554	0.02
739.951	0.02
740.349	0
740.746	0
741.144	0
741.541	0.05
741.938	0.07
742.336	0.02
742.733	0.03
743.13	0.03
743.527	0.03
743.924	0.01
744.321	0.02
744.718	0.02
745.115	0.05
745.511	0.05
745.908	0.04
746.305	0.03
746.701	0.04
747.098	0.02
747.494	0.03
747.89	0.01
748.287	0.04
748.683	0.03
749.079	0.03
749.475	0.04
749.871	0.04
750.267	0.04
750.663	0.01
751.059	-0.01
751.455	-0.18
751.851	-0.2
752.246	-0.06
752.642	0.14
753.038	0.16
753.433	0.05
753.829	0.07
754.224	0.06
754.619	0.03
755.015	0.02
755.41	0.02
755.805	0.02
756.2	0.04
756.595	0.03
756.99	-0.01
757.385	0.02
757.78	0.02
758.175	0.01
758.569	-0.02
758.964	0.01
759.359	0.03
759.753	0.02
760.148	0.07
760.542	0.05
760.936	0.03
761.331	0.01
761.725	0.02
762.119	0.02
762.513	-0.01
762.907	0.02
763.301	0.04
763.695	0.03
764.089	0.01
764.483	-0.01
764.877	-0.05
765.27	-0.01
765.664	0.05
766.057	0.03
766.451	-0
766.844	0.02
767.238	0.05
767.631	0.07
768.024	0.05
768.417	0.04
768.811	0.03
769.204	0.02
769.597	0
769.99	-0
770.383	-0
770.775	0.03
771.168	0.04
771.561	0.04
771.953	0.02
772.346	0.01
772.739	0.01
773.131	0.03
773.523	0.01
773.916	0.01
774.308	0.02
774.7	0.04
775.092	0.05
775.484	0.02
775.876	0.04
776.268	0.03
776.66	0.04
777.052	0.01
777.444	0.03
777.836	0.03
778.227	0.01
778.619	0.02
779.01	0.03
779.402	0.03
779.793	0.02
780.185	0
780.576	0.02
780.967	0.02
781.358	0.05
781.749	0.04
782.14	0.03
782.531	-0.03
782.922	-0.01
783.313	0.01
783.704	0.04
784.095	0.02
784.485	0.02
784.876	0.01
785.266	0.03
785.657	0.03
786.047	0.03
786.438	0.03
786.828	0.01
787.218	0.04
787.608	0.01
787.998	0.01
788.389	0.04
788.779	0.04
789.168	0.02
789.558	-0.01
789.948	-0.02
790.338	0
790.728	0.03
791.117	0.04
791.507	0.03
791.896	0.01
792.286	0.01
792.675	0.02
793.064	0.01
793.454	0.01
793.843	0.03
794.232	0.03
794.621	-0.01
795.01	-0
795.399	-0.02
795.788	-0.03
796.176	-0
796.565	0.05
796.954	0.06
797.343	0.05
797.731	0.05
798.12	0.03
798.508	0.03
798.896	-0
799.285	0.02
799.673	0.01
800.061	0.03
800.449	0.02
800.837	0.02
801.225	0.03
801.613	0.02
802.001	0.03
802.389	0.02
802.777	0
803.164	0.04
803.552	0.04
803.94	0.03
804.327	0.02
804.715	0.01
805.102	0.02
805.489	0.03
805.877	0.04
806.264	0.03
806.651	0.03
807.038	0.01
807.425	-0.01
807.812	-0.01
808.199	0.03
808.586	0.03
808.972	0.02
809.359	0.02
809.746	0.01
810.132	0.04
810.519	0.04
810.905	0.03
811.292	0.02
811.678	-0
812.064	-0
812.45	0
812.836	-0.01
813.223	0.03
813.609	0.06
813.995	0.05
814.38	0.02
814.766	0.02
815.152	-0.02
815.538	0.02
815.923	0.03
816.309	0.05
816.694	-0
817.08	0.01
817.465	0.04
817.851	0.03
818.236	0
818.621	-0
819.006	0.01
819.391	0.03
819.776	0.03
820.161	0.01
820.546	0.04
820.931	0.03
821.316	0.03
821.7	0.01
822.085	-0.02
822.47	0.01
822.854	0.03
823.239	0.03
823.623	0.02
824.007	0.03
824.391	0
824.776	0.02
825.16	0.02
825.544	0.03
825.928	0.03
826.312	0.02
826.696	-0
827.08	-0
827.463	-0.01
827.847	-0
828.231	-0.01
828.614	0.01
828.998	0.03
829.381	0.02
829.765	0.06
830.148	0.05
830.531	0.02
830.914	0.01
831.297	0.03
831.681	0.04
832.064	0.04
832.446	0.02
832.829	0.03
833.212	0.01
833.595	0.01
833.978	0.01
834.36	0.01
834.743	0.03
835.125	0.03
835.508	0.03
835.89	0.03
836.272	0.01
836.655	0.02
837.037	0.01
837.419	0.03
837.801	0.04
838.183	0.02
838.565	-0
838.947	0.02
839.329	0.02
839.71	0
840.092	0.02
840.474	0.04
840.855	0.02
841.237	0.03
841.618	-0.01
842	-0.03
842.381	0.02
842.762	0.05
843.143	0.03
843.525	-0.01
843.906	0
844.287	0.02
844.667	0.04
845.048	0.03
845.429	0.02
845.81	0.03
846.191	0.02
846.571	-0
846.952	0.03
847.332	0
847.713	0.03
848.093	0.02
848.473	0.01
848.854	0.01
849.234	0.02
849.614	0.02
849.994	0.03
850.374	0.01
850.754	0.02
851.134	0
851.513	0.01
851.893	0.02
852.273	0.02
852.652	0
853.032	0
853.411	0.01
853.791	0.04
854.17	0.02
854.55	0.02
854.929	0.02
855.308	0.05
855.687	0.02
856.066	0.02
856.445	0
856.824	0.01
857.203	-0
857.582	0.02
857.96	0.01
858.339	0.02
858.718	0.04
859.096	0.03
859.475	0.01
859.853	0.01
860.231	0.03
860.61	0.04
860.988	0.02
861.366	0.03
861.744	0
862.122	0.03
862.5	0.01
862.878	0.01
863.256	0.01
863.633	0.02
864.011	0.01
864.389	0.02
864.766	0.01
865.144	0.01
865.521	0.02
865.899	0.01
866.276	0.01
866.653	0.01
867.031	0.02
867.408	0.01
867.785	0.01
868.162	0.03
868.539	0.02
868.916	0.02
869.292	0.03
869.669	0.02
870.046	0.03
870.422	0.01
870.799	0.03
871.175	-0.01
871.552	-0.01
871.928	-0.01
872.305	0
872.681	0.03
873.057	0.02
873.433	-0
873.809	0.01
874.185	-0
874.561	0.01
874.937	0.03
875.313	0.02
875.688	0.02
876.064	0
876.44	0
876.815	0.02
877.191	0.03
877.566	0.03
877.942	0
878.317	0
878.692	0.02
879.067	0.02
879.442	0.01
879.817	0.02
880.192	0.01
880.567	0.03
880.942	0.01
881.317	-0.01
881.691	0.03
882.066	-0.01
882.441	0.03
882.815	-0.01
883.19	0.01
883.564	0
883.938	0.04
884.313	0.03
884.687	0.01
885.061	0.01
885.435	0.01
885.809	0.01
886.183	-0.01
886.557	0.02
886.931	0.01
887.305	0.01
887.678	0.02
888.052	0.02
888.425	0.01
888.799	0.01
889.172	0.01
889.546	0.01
889.919	-0
890.292	0.01
890.665	0
891.039	-0.01
891.412	0.01
891.785	0.02
892.157	0.01
892.53	0.02
892.903	0.01
893.276	0.02
893.648	0.01
894.021	0.02
894.394	0
894.766	0.01
895.139	0.03
895.511	-0
895.883	0.02
896.255	0.03
896.627	-0.01
897	0
897.372	-0.02
897.744	0.01
898.115	0.02
898.487	0
898.859	0.02
899.231	0.01
899.602	0.03
899.974	0.01
900.345	0.02
900.717	0.02
901.088	0.02
901.46	0.02
901.831	0.02
902.202	0
902.573	-0
902.944	0.02
903.315	0.01
903.686	0
904.057	0
904.428	-0.01
904.799	0.01
905.169	0.02
905.54	-0.01
905.91	0.03
906.281	0.01
906.651	0.01
907.022	0
907.392	0.04
907.762	0.03
908.132	0.02
908.502	0.01
908.872	-0
909.242	-0.02
909.612	-0.01
909.982	0.02
910.352	0.03
910.722	0.01
911.091	-0.02
911.461	-0.02
911.83	0
912.2	0.02
912.569	-0.02
912.938	0
913.308	-0.02
913.677	0.01
914.046	-0.04
914.415	-0
914.784	-0
915.153	-0
915.522	-0
915.891	0
916.259	0.01
916.628	-0.03
916.997	0.02
917.365	0.01
917.734	0
918.102	-0
918.47	0
918.839	-0.04
919.207	-0.03
919.575	-0.02
919.943	-0.02
920.311	-0.03
920.679	-0.02
921.047	-0.03
921.415	0.04
921.783	0.02
922.15	-0.01
922.518	-0.01
922.886	-0.04
923.253	-0.04
923.62	-0.01
923.988	-0.01
924.355	-0
924.722	-0.03
925.09	0.01
925.457	-0.05
925.824	-0.04
926.191	-0.04
926.558	-0.05
926.925	-0
927.291	-0.01
927.658	-0.03
928.025	-0.05
928.391	-0.05
928.758	-0.06
929.124	-0.04
929.491	-0.07
929.857	-0
930.223	-0.05
930.59	-0.01
930.956	-0.07
931.322	-0.04
931.688	-0.05
932.054	-0.06
932.42	-0.03
932.785	-0.02
933.151	-0.03
933.517	-0.03
933.882	-0.03
934.248	-0.04
934.613	0.01
934.979	0
935.344	0.01
935.71	-0.06
936.075	-0.1
936.44	-0.06
936.805	-0.02
937.17	-0.01
937.535	-0.05
937.9	-0.01
938.265	0.04
938.63	-0.01
938.994	-0.09
939.359	-0.01
939.724	-0.03
940.088	-0.08
940.453	-0.05
940.817	-0.11
941.181	-0.01
941.545	-0.02
941.91	-0.05
942.274	-0
942.638	-0.03
943.002	-0.07
943.366	0.04
943.73	-0.03
944.093	-0.08
944.457	-0.04
944.821	-0.06
945.184	-0.09
945.548	-0.05
945.911	-0.1
946.275	-0.07
946.638	-0.08
947.001	-0.02
947.365	0
947.728	-0.01
948.091	-0.09
948.454	-0.1
948.817	-0.02
949.18	-0.1
949.543	-0.1
949.905	-0.07
950.268	-0.09
950.631	-0.05
950.993	0
951.356	-0.03
951.718	-0.17
952.08	-0
952.443	-0.02
952.805	0
953.167	-0.05
953.529	-0.17
953.891	-0.07
954.253	-0.07
954.615	0.03
954.977	-0.06
955.339	-0.07
955.7	-0.31
956.062	-0.22
956.424	-0.04
956.785	-0.03
957.147	0.02
957.508	-0.17
957.869	-0.12
958.231	-0.13
958.592	-0.11
958.953	-0.07
959.314	0.01
959.675	0.04
960.036	-0.07
960.397	-0.12
960.757	-0.37
961.118	-0.11
961.479	0.03
961.839	-0.1
962.2	-0.32
962.56	-0.38
962.921	-0.52
963.281	-0.11
963.641	-0.35
964.002	0.07
964.362	0.16
964.722	-0.02
965.082	0.07
965.442	0.21
965.801	-0.06
966.161	-0.18
966.521	0.26
966.881	-0.17
967.24	-0.01
967.6	0.06
967.959	0.13
968.319	-0.75
968.678	-0.12
969.037	-0.02
969.397	0.27
969.756	-0.21
970.115	-0.11
970.474	0.27
970.833	0.13
971.192	-0.06
971.55	0.24
971.909	0.08
972.268	-0.33
972.626	-0.2
972.985	-0.47
973.343	0.16
973.702	-0.53
974.06	-0.34
974.418	-0.15
974.777	-0.41
975.135	-0.18
975.493	-0.23
975.851	-0.08
976.209	0.27
976.567	-0.17
976.925	-0.15
977.282	-0.11
977.64	-0.21
977.998	-0.08
978.355	-0.01
978.713	-0.9
979.07	0.19
979.428	-0.45
979.785	-0.4
980.142	-0.07
980.499	-0
980.856	-0.39
981.213	-0
981.57	-1.03
981.927	0.62
982.284	-0.37
982.641	-0.14
982.997	-0.01
983.354	-0.09
983.711	0.02
984.067	-0.08
984.424	-0.19
984.78	-0
985.136	-0.39
985.493	0.25
985.849	-0.48
986.205	0.07
986.561	0.64
986.917	-0
987.273	-1.07
987.629	0.12
987.984	-0.1
988.34	-0.29
988.696	-0
989.051	-0.05
989.407	-0.03
989.762	-0.01
990.118	-0.49
990.473	-0.49
990.828	0.83
991.183	-0.27
991.538	-0.39
991.893	0.26
992.248	0.17
992.603	-0.08
992.958	-0.58
993.313	-0
993.668	-0
994.022	-0
994.377	-0.39
994.731	-0.35
995.086	-0
995.44	-0
995.794	-0.43
996.149	0.24
996.503	-0.34
996.857	0.23
997.211	-0.95
997.565	-0
997.919	-0
998.273	-0.23
998.627	0.14
998.98	-0.32
999.334	0.04
999.687	-0.47
1000.041	0.07
1000.394	-0
1000.748	0.01
1001.101	-0.09
1001.454	1.71
1001.808	-0.18
1002.161	-0
1002.514	-0.39
1002.867	-0
1003.22	-0
1003.572	-0.31
1003.925	-0.91
1004.278	-0
1004.631	-0
1004.983	-0.97
1005.336	-0
1005.688	-0.62
1006.04	-0.82
1006.393	-0
1006.745	-0.24
1007.097	0.09
1007.449	-0.45
1007.801	-1.03
1008.153	-0.25
1008.505	-0.06
1008.857	0.29
1009.209	-0
1009.561	-0.22
1009.912	-0.05
1010.264	-0.41
1010.615	-0.16
1010.967	-0.38
1011.318	-0.11
1011.669	-0.18
1012.021	1.07
1012.372	-0.02
1012.723	-0
1013.074	0.11
1013.425	-0.28
1013.776	-0.03
1014.127	-0
1014.477	-0.04
1014.828	-0.13
1015.179	-0.33
1015.529	-0.99
1015.88	0.13
1016.23	-0.64
1016.581	-0.88
1016.931	0.59
1017.281	-0.23
1017.631	-0.12
1017.982	-0
1018.332	-0
1018.682	0.24
1019.031	-0.36
1019.381	-1.15
1019.731	-0.84
1020.081	-0.61
1020.43	-0
1020.78	0.26
1021.129	-0.55
1021.479	-0
1021.828	-0.12
1022.178	-0.55
1022.527	0.24
1022.876	-0.18
1023.225	-0.43
1023.574	-0.41
1023.923	-0
1024.272	-0.36
1024.621	0.38
1024.97	-0.6
1025.318	-0.52
1025.667	-0.22
1026.015	0.08
1026.364	-0
1026.712	-0
1027.061	-0
1027.409	-0.57
1027.757	-0
1028.105	-0
1028.453	-0
